File: Daten/20190815_Fe_E3_ORR_after.txt
Index	Potential applied (V)	Time (s)	WE(1).Current (A)	WE(2).Current (A)	Scan	WE(1).Potential (V)
1	0.0505066	22.9665	-0.00132294	3.33649e-05	1
65	0.0798035	28.8259	-0.00124481	3.39813e-05	1
129	0.1091	34.6853	-0.00123322	3.4906e-05	1
193	0.138397	40.5447	-0.00121857	3.5965e-05	1
257	0.167694	46.4041	-0.00119934	3.65265e-05	1
321	0.196991	52.2635	-0.00118073	3.74756e-05	1
385	0.226288	58.1229	-0.00116333	3.83118e-05	1
449	0.255585	63.9823	-0.0011438	3.91937e-05	1
513	0.284882	69.8417	-0.00112305	4.04541e-05	1
577	0.314178	75.701	-0.00109894	4.13239e-05	1
641	0.343475	81.5604	-0.00107513	4.23431e-05	1
705	0.372772	87.4198	-0.00105225	4.32861e-05	1
769	0.402069	93.2792	-0.001026	4.43512e-05	1
833	0.431366	99.1386	-0.000993042	4.50043e-05	1
897	0.460663	104.998	-0.000957336	4.55933e-05	1
961	0.48996	110.857	-0.000916748	4.57458e-05	1
1025	0.519257	116.717	-0.000873718	4.54102e-05	1
1089	0.548553	122.576	-0.000822754	4.40216e-05	1
1153	0.57785	128.436	-0.00076355	4.17603e-05	1
1217	0.607147	134.295	-0.000693054	3.89526e-05	1
1281	0.636444	140.154	-0.000608215	3.48877e-05	1
1345	0.665741	146.014	-0.000506592	2.97821e-05	1
1409	0.695038	151.873	-0.00038913	2.3407e-05	1
1473	0.724335	157.733	-0.000262115	1.70258e-05	1
1537	0.753632	163.592	-0.00013739	1.09711e-05	1
1601	0.782928	169.451	-3.44635e-05	6.6864e-06	1
1665	0.812225	175.311	3.13049e-05	4.39758e-06	1
1729	0.841522	181.17	6.28052e-05	3.6499e-06	1
1793	0.870819	187.029	7.38831e-05	3.39355e-06	1
1857	0.900116	192.889	7.82471e-05	3.27454e-06	1
1921	0.929413	198.748	7.96204e-05	3.24707e-06	1
1985	0.95871	204.608	8.1665e-05	3.12195e-06	1
2049	0.988007	210.467	8.4198e-05	3.07617e-06	1
2113	1.0173	216.326	8.79211e-05	3.08838e-06	1
2177	1.0466	222.186	9.32617e-05	3.03345e-06	1
2241	1.02463	228.045	-2.76947e-05	2.96936e-06	1
2305	0.995331	233.905	-3.79822e-05	2.98767e-06	1
2369	0.966034	239.764	-4.25262e-05	2.99377e-06	1
2433	0.936737	245.623	-4.69971e-05	3.11584e-06	1
2497	0.90744	251.483	-5.01709e-05	3.16162e-06	1
2561	0.878143	257.342	-5.60608e-05	3.22266e-06	1
2625	0.848846	263.202	-6.70471e-05	3.38135e-06	1
2689	0.81955	269.061	-9.13086e-05	3.72314e-06	1
2753	0.790253	274.92	-0.000144012	5.23071e-06	1
2817	0.760956	280.78	-0.000235962	8.84705e-06	1
2881	0.731659	286.639	-0.000358826	1.45935e-05	1
2945	0.702362	292.499	-0.000493195	2.15851e-05	1
3009	0.673065	298.358	-0.000623169	2.8476e-05	1
3073	0.643768	304.217	-0.000739441	3.50159e-05	1
3137	0.614471	310.077	-0.000835266	4.05579e-05	1
3201	0.585175	315.936	-0.000913086	4.47998e-05	1
3265	0.555878	321.796	-0.000975647	4.79126e-05	1
3329	0.526581	327.655	-0.00102814	5.00793e-05	1
3393	0.497284	333.514	-0.00107483	5.14221e-05	1
3457	0.467987	339.374	-0.00111603	5.2124e-05	1
3521	0.43869	345.233	-0.00114929	5.24597e-05	1
3585	0.409393	351.092	-0.00117584	5.17273e-05	1
3649	0.380096	356.952	-0.00120392	5.14221e-05	1
3713	0.3508	362.811	-0.00123138	5.15747e-05	1
3777	0.321503	368.671	-0.00125366	5.05371e-05	1
3841	0.292206	374.53	-0.00127838	4.98962e-05	1
3905	0.262909	380.389	-0.00129547	4.91638e-05	1
3969	0.233612	386.249	-0.00131226	4.776e-05	1
4033	0.204315	392.108	-0.00132629	4.73022e-05	1
4097	0.175018	397.968	-0.00133942	4.66614e-05	1
4161	0.145721	403.827	-0.00135803	4.58374e-05	1
4225	0.116425	409.686	-0.00137177	4.49921e-05	1
4289	0.0871277	415.546	-0.00138123	4.43115e-05	1
4353	0.0578308	421.405	-0.00139069	4.37866e-05	1
4417	0.0715637	427.265	-0.00123108	4.42139e-05	2
4481	0.100861	433.124	-0.00121399	4.53186e-05	2
4545	0.130157	438.983	-0.00119476	4.60815e-05	2
4609	0.159454	444.843	-0.00117981	4.6936e-05	2
4673	0.188751	450.702	-0.00116119	4.79431e-05	2
4737	0.218048	456.562	-0.00114349	4.92554e-05	2
4801	0.247345	462.421	-0.00112823	5.04761e-05	2
4865	0.276642	468.28	-0.00110687	5.16663e-05	2
4929	0.305939	474.14	-0.00108398	5.26733e-05	2
4993	0.335236	479.999	-0.00105957	5.40771e-05	2
5057	0.364532	485.858	-0.00103638	5.51453e-05	2
5121	0.393829	491.718	-0.00100555	5.59387e-05	2
5185	0.423126	497.577	-0.000975037	5.68237e-05	2
5249	0.452423	503.437	-0.000939941	5.67932e-05	2
5313	0.48172	509.296	-0.000897217	5.65796e-05	2
5377	0.511017	515.155	-0.000857239	5.59082e-05	2
5441	0.540314	521.015	-0.000808105	5.43823e-05	2
5505	0.569611	526.874	-0.000749207	5.15442e-05	2
5569	0.598907	532.734	-0.000684509	4.79126e-05	2
5633	0.628204	538.593	-0.000603027	4.28528e-05	2
5697	0.657501	544.452	-0.000507507	3.63556e-05	2
5761	0.686798	550.312	-0.000397247	2.91504e-05	2
5825	0.716095	556.171	-0.000277771	2.13654e-05	2
5889	0.745392	562.031	-0.000156036	1.42029e-05	2
5953	0.774689	567.89	-5.1239e-05	8.66394e-06	2
6017	0.803986	573.749	2.0462e-05	5.60303e-06	2
6081	0.833282	579.609	5.76477e-05	4.41589e-06	2
6145	0.862579	585.468	7.20215e-05	3.97644e-06	2
6209	0.891876	591.328	7.7179e-05	3.84827e-06	2
6273	0.921173	597.187	7.93152e-05	3.71094e-06	2
6337	0.95047	603.046	8.0658e-05	3.67737e-06	2
6401	0.979767	608.906	8.17566e-05	3.5675e-06	2
6465	1.00906	614.765	8.4259e-05	3.45154e-06	2
6529	1.03836	620.624	8.83179e-05	3.44849e-06	2
6593	1.03287	626.484	-2.17224e-05	3.40576e-06	2
6657	1.00357	632.343	-3.5556e-05	3.43018e-06	2
6721	0.974274	638.203	-4.16779e-05	3.479e-06	2
6785	0.944977	644.062	-4.48608e-05	3.58582e-06	2
6849	0.91568	649.921	-4.87061e-05	3.66821e-06	2
6913	0.886383	655.781	-5.40466e-05	3.7262e-06	2
6977	0.857086	661.64	-6.27441e-05	3.8269e-06	2
7041	0.827789	667.5	-8.15125e-05	4.14429e-06	2
7105	0.798492	673.359	-0.000121399	5.29175e-06	2
7169	0.769196	679.218	-0.000197449	8.4137e-06	2
7233	0.739899	685.078	-0.000307922	1.40961e-05	2
7297	0.710602	690.937	-0.000435364	2.14874e-05	2
7361	0.681305	696.797	-0.000565796	2.96143e-05	2
7425	0.652008	702.656	-0.000681458	3.70239e-05	2
7489	0.622711	708.515	-0.000784607	4.36035e-05	2
7553	0.593414	714.375	-0.000867615	4.89197e-05	2
7617	0.564117	720.234	-0.00093811	5.33142e-05	2
7681	0.534821	726.094	-0.000993958	5.60303e-05	2
7745	0.505524	731.953	-0.00104065	5.76477e-05	2
7809	0.476227	737.812	-0.0010849	5.896e-05	2
7873	0.44693	743.672	-0.00111725	5.88989e-05	2
7937	0.417633	749.531	-0.00115448	5.9021e-05	2
8001	0.388336	755.391	-0.00117981	5.80444e-05	2
8065	0.359039	761.25	-0.00120819	5.74341e-05	2
8129	0.329742	767.109	-0.00123322	5.62134e-05	2
8193	0.300446	772.969	-0.0012558	5.50537e-05	2
8257	0.271149	778.828	-0.00127747	5.41077e-05	2
8321	0.241852	784.687	-0.00129395	5.26428e-05	2
8385	0.212555	790.547	-0.00131531	5.15442e-05	2
8449	0.183258	796.406	-0.00132629	5.02625e-05	2
8513	0.153961	802.266	-0.00134247	4.92859e-05	2
8577	0.124664	808.125	-0.00135437	4.82178e-05	2
8641	0.0953674	813.984	-0.00136627	4.74243e-05	2
8705	0.0660706	819.844	-0.00138275	4.67224e-05	2
8769	0.063324	825.703	-0.00123444	4.68445e-05	3
8833	0.0926208	831.563	-0.00121277	4.82788e-05	3
8897	0.121918	837.422	-0.00119202	4.87671e-05	3
8961	0.151215	843.281	-0.00117493	5.04761e-05	3
9025	0.180511	849.141	-0.00115936	5.17578e-05	3
9089	0.209808	855	-0.00113953	5.30701e-05	3
9153	0.239105	860.86	-0.00112305	5.39856e-05	3
9217	0.268402	866.719	-0.00110046	5.55115e-05	3
9281	0.297699	872.578	-0.00108276	5.67932e-05	3
9345	0.326996	878.438	-0.0010553	5.78308e-05	3
9409	0.356293	884.297	-0.00103271	5.92041e-05	3
9473	0.38559	890.157	-0.0010022	5.96924e-05	3
9537	0.414886	896.016	-0.000973206	6.09436e-05	3
9601	0.444183	901.875	-0.000934753	6.02722e-05	3
9665	0.47348	907.735	-0.000898132	6.09436e-05	3
9729	0.502777	913.594	-0.000855103	6.00586e-05	3
9793	0.532074	919.453	-0.000807495	5.77393e-05	3
9857	0.561371	925.313	-0.000752869	5.61218e-05	3
9921	0.590668	931.172	-0.000685425	5.15442e-05	3
9985	0.619965	937.032	-0.000609741	4.66309e-05	3
10049	0.649261	942.891	-0.000518799	4.0213e-05	3
10113	0.678558	948.75	-0.000413849	3.25623e-05	3
10177	0.707855	954.61	-0.000298645	2.4649e-05	3
10241	0.737152	960.469	-0.000178436	1.6806e-05	3
10305	0.766449	966.329	-7.13196e-05	1.06506e-05	3
10369	0.795746	972.188	7.2052e-06	6.81152e-06	3
10433	0.825043	978.047	4.91333e-05	5.18188e-06	3
10497	0.85434	983.907	7.24792e-05	4.65088e-06	3
10561	0.883636	989.766	7.66602e-05	4.38538e-06	3
10625	0.912933	995.626	7.86743e-05	4.30603e-06	3
10689	0.94223	1001.48	8.05054e-05	4.21143e-06	3
10753	0.971527	1007.34	8.13904e-05	4.11072e-06	3
10817	1.00082	1013.2	8.31604e-05	4.01306e-06	3
10881	1.03012	1019.06	8.63342e-05	3.91846e-06	3
10945	1.04111	1024.92	-1.24542e-05	3.87268e-06	3
11009	1.01181	1030.78	-3.30994e-05	3.92456e-06	3
11073	0.982513	1036.64	-3.95264e-05	3.97339e-06	3
11137	0.953217	1042.5	-4.34692e-05	4.0863e-06	3
11201	0.92392	1048.36	-4.71802e-05	4.18396e-06	3
11265	0.894623	1054.22	-5.21851e-05	4.1748e-06	3
11329	0.865326	1060.08	-5.93567e-05	4.422e-06	3
11393	0.836029	1065.94	-7.43713e-05	4.64172e-06	3
11457	0.806732	1071.8	-0.000105164	5.48401e-06	3
11521	0.777435	1077.66	-0.000168213	7.92236e-06	3
11585	0.748138	1083.52	-0.000266754	1.28479e-05	3
11649	0.718842	1089.38	-0.000365936	2.01019e-05	3
11713	0.689545	1095.24	-0.000510864	2.85675e-05	3
11777	0.660248	1101.09	-0.000635986	3.69293e-05	3
11841	0.630951	1106.95	-0.000743713	4.40857e-05	3
11905	0.601654	1112.81	-0.000830078	5.02014e-05	3
11969	0.572357	1118.67	-0.000906982	5.52979e-05	3
12033	0.54306	1124.53	-0.000959473	5.83496e-05	3
12097	0.513763	1130.39	-0.00102448	6.08826e-05	3
12161	0.484467	1136.25	-0.00105988	6.18591e-05	3
12225	0.45517	1142.11	-0.00110138	6.25305e-05	3
12289	0.425873	1147.97	-0.00112762	6.19202e-05	3
12353	0.396576	1153.83	-0.00116608	6.17981e-05	3
12417	0.367279	1159.69	-0.00118988	6.02112e-05	3
12481	0.337982	1165.55	-0.00121979	5.97839e-05	3
12545	0.308685	1171.41	-0.00123932	5.81665e-05	3
12609	0.279388	1177.27	-0.00126587	5.71594e-05	3
12673	0.250092	1183.13	-0.00127655	5.54199e-05	3
12737	0.220795	1188.99	-0.00128723	5.44434e-05	3
12801	0.191498	1194.84	-0.00132172	5.27954e-05	3
12865	0.162201	1200.7	-0.00131134	5.19714e-05	3
12929	0.132904	1206.56	-0.00134888	5.06897e-05	3
12993	0.103607	1212.42	-0.00135742	4.97742e-05	3
13057	0.0743103	1218.28	-0.0013739	4.92554e-05	3
13112	0.0509644	1223.32	-0.0013385	4.87061e-05	3