File: Daten/20190815_Fe_E3_ORR_bckg_after.txt
Index	Potential applied (V)	Time (s)	WE(1).Current (A)	Column 5 (V/s)	Scan	WE(1).Potential (V)
1	0.0505066	3.98667	-0.000245117	0.005	1	0.0505066
62	0.0784302	9.5714	4.69513e-05		1	0.0783081
123	0.106354	15.1561	5.93567e-05		1	0.10611
184	0.134277	20.7409	6.41174e-05		1	0.134033
245	0.162201	26.3256	6.73218e-05		1	0.161987
306	0.190125	31.9103	6.97937e-05		1	0.189819
367	0.218048	37.4951	7.22961e-05		1	0.217712
428	0.245972	43.0798	7.43103e-05		1	0.245514
489	0.273895	48.6645	7.64465e-05		1	0.273468
550	0.301819	54.2493	7.83081e-05		1	0.301392
611	0.329742	59.834	8.05054e-05		1	0.329285
672	0.357666	65.4187	8.30688e-05		1	0.357178
733	0.38559	71.0035	8.54797e-05		1	0.38501
794	0.413513	76.5882	8.83484e-05		1	0.412903
855	0.441437	82.1729	9.13696e-05		1	0.440765
916	0.46936	87.7577	9.51538e-05		1	0.468628
977	0.497284	93.3424	9.94873e-05		1	0.496582
1038	0.525208	98.9271	0.000104004		1	0.524414
1099	0.553131	104.512	0.00010788		1	0.552307
1160	0.581055	110.097	0.000108826		1	0.58017
1221	0.608978	115.681	0.000109222		1	0.608063
1282	0.636902	121.266	0.000110901		1	0.635925
1343	0.664825	126.851	0.000110443		1	0.663879
1404	0.692749	132.436	0.000107574		1	0.691803
1465	0.720673	138.02	0.000103882		1	0.719666
1526	0.748596	143.605	0.000100189		1	0.74762
1587	0.77652	149.19	9.68933e-05		1	0.776062
1648	0.804443	154.774	9.43298e-05		1	0.803528
1709	0.832367	160.359	9.22546e-05		1	0.831604
1770	0.860291	165.944	9.09424e-05		1	0.859375
1831	0.888214	171.529	8.99963e-05		1	0.887756
1892	0.916138	177.113	8.97217e-05		1	0.915527
1953	0.944061	182.698	9.03015e-05		1	0.943298
2014	0.971985	188.283	9.18274e-05		1	0.971069
2075	0.999908	193.868	9.48181e-05		1	0.99884
2136	1.02783	199.452	0.000100037		1	1.02722
2197	1.04477	205.037	7.67212e-06		1	1.04401
2258	1.01685	210.622	-2.99896e-05		1	1.01624
2319	0.988922	216.207	-3.93982e-05		1	0.988159
2380	0.960999	221.791	-4.44031e-05		1	0.960083
2441	0.933075	227.376	-4.80591e-05		1	0.932312
2502	0.905151	232.961	-5.14832e-05		1	0.904236
2563	0.877228	238.545	-5.51453e-05		1	0.87677
2624	0.849304	244.13	-5.90515e-05		1	0.848389
2685	0.821381	249.715	-6.40259e-05		1	0.8203125
2746	0.793457	255.3	-6.91528e-05		1	0.792236
2807	0.765533	260.884	-7.48291e-05		1	0.765381
2868	0.73761	266.469	-8.05969e-05		1	0.736847
2929	0.709686	272.054	-8.6792e-05		1	0.708954
2990	0.681763	277.639	-9.30176e-05		1	0.68103
3051	0.653839	283.223	-9.88464e-05		1	0.653168
3112	0.625916	288.808	-0.000104279		1	0.625214
3173	0.597992	294.393	-0.000107361		1	0.597351
3234	0.570068	299.978	-0.000108673		1	0.569427
3295	0.542145	305.562	-0.000108429		1	0.541565
3356	0.514221	311.147	-0.000107513		1	0.513702
3417	0.486298	316.732	-0.000106445		1	0.485809
3478	0.458374	322.316	-0.000105255		1	0.457916
3539	0.43045	327.901	-0.000105316		1	0.430054
3600	0.402527	333.486	-0.000108398		1	0.402161
3661	0.374603	339.071	-0.000108826		1	0.374298
3722	0.34668	344.655	-0.000107727		1	0.346375
3783	0.318756	350.24	-0.00010553		1	0.318542
3844	0.290833	355.825	-0.000104431		1	0.290588
3905	0.262909	361.41	-0.000103882		1	0.262726
3966	0.234985	366.994	-0.000104034		1	0.234802
4027	0.207062	372.579	-0.000104126		1	0.206909
4088	0.179138	378.164	-0.000104462		1	0.178986
4149	0.151215	383.749	-0.000105255		1	0.151123
4210	0.123291	389.333	-0.000106354		1	0.12326
4271	0.0953674	394.918	-0.000108856		1	0.0953979
4332	0.0674438	400.503	-0.000113434		1	0.0675049
4393	0.0605774	406.087	3.04199e-05		2	0.0600891
4454	0.088501	411.672	5.48401e-05		2	0.0882874
4515	0.116425	417.257	6.18286e-05		2	0.116241
4576	0.144348	422.842	6.56738e-05		2	0.144104
4637	0.172272	428.426	6.86951e-05		2	0.171967
4698	0.200195	434.011	7.15332e-05		2	0.199921
4759	0.228119	439.596	7.38525e-05		2	0.227753
4820	0.256042	445.181	7.62329e-05		2	0.255676
4881	0.283966	450.765	7.81555e-05		2	0.283478
4942	0.31189	456.35	8.04138e-05		2	0.311371
5003	0.339813	461.935	8.26111e-05		2	0.339325
5064	0.367737	467.52	8.46863e-05		2	0.367218
5125	0.39566	473.104	8.70056e-05		2	0.395081
5186	0.423584	478.689	8.91418e-05		2	0.423004
5247	0.451508	484.274	9.19495e-05		2	0.450867
5308	0.479431	489.858	9.52148e-05		2	0.478729
5369	0.507355	495.443	9.96094e-05		2	0.506622
5430	0.535278	501.028	0.000104889		2	0.534485
5491	0.563202	506.613	0.000108521		2	0.562378
5552	0.591125	512.197	0.000108856		2	0.59021
5613	0.619049	517.782	0.000108826		2	0.618073
5674	0.646973	523.367	0.000109589		2	0.645996
5735	0.674896	528.952	0.000107788		2	0.673889
5796	0.70282	534.536	0.000104584		2	0.701904
5857	0.730743	540.121	0.000100647		2	0.729767
5918	0.758667	545.706	9.67712e-05		2	0.758362
5979	0.786591	551.291	9.36584e-05		2	0.785522
6040	0.814514	556.875	9.09729e-05		2	0.813904
6101	0.842438	562.46	8.90198e-05		2	0.84137
6162	0.870361	568.045	8.73108e-05		2	0.869751
6223	0.898285	573.629	8.64258e-05		2	0.897522
6284	0.926208	579.214	8.5907e-05		2	0.925903
6345	0.954132	584.799	8.61511e-05		2	0.953064
6406	0.982056	590.384	8.72192e-05		2	0.981445
6467	1.00998	595.968	8.92334e-05		2	1.00891
6528	1.0379	601.553	9.35669e-05		2	1.03699
6589	1.0347	607.138	-1.94855e-05		2	1.03363
6650	1.00677	612.723	-3.61633e-05		2	1.00647
6711	0.978851	618.307	-4.24103e-05		2	0.978088
6772	0.950928	623.892	-4.63013e-05		2	0.950012
6833	0.923004	629.477	-4.953e-05		2	0.922241
6894	0.895081	635.061	-5.29175e-05		2	0.89447
6955	0.867157	640.646	-5.64575e-05		2	0.866394
7016	0.839233	646.231	-6.06689e-05		2	0.838318
7077	0.81131	651.816	-6.55823e-05		2	0.810242
7138	0.783386	657.4	-7.10144e-05		2	0.782471
7199	0.755463	662.985	-7.67517e-05		2	0.7547
7260	0.727539	668.57	-8.26721e-05		2	0.726776
7321	0.699615	674.155	-8.90198e-05		2	0.698883
7382	0.671692	679.739	-9.50928e-05		2	0.67099
7443	0.643768	685.324	-0.000100983		2	0.643036
7504	0.615845	690.909	-0.000105438		2	0.615082
7565	0.587921	696.494	-0.00010791		2	0.58725
7626	0.559998	702.078	-0.000108551		2	0.559357
7687	0.532074	707.663	-0.000108124		2	0.531464
7748	0.50415	713.248	-0.000106995		2	0.503601
7809	0.476227	718.832	-0.000105682		2	0.475769
7870	0.448303	724.417	-0.000104736		2	0.447845
7931	0.42038	730.002	-0.00010553		2	0.419952
7992	0.392456	735.587	-0.000108582		2	0.39212
8053	0.364532	741.171	-0.000108459		2	0.364227
8114	0.336609	746.756	-0.000106537		2	0.336273
8175	0.308685	752.341	-0.000104706		2	0.308411
8236	0.280762	757.926	-0.000103638		2	0.280518
8297	0.252838	763.51	-0.000103363		2	0.252625
8358	0.224915	769.095	-0.000103302		2	0.224762
8419	0.196991	774.68	-0.000103394		2	0.196869
8480	0.169067	780.265	-0.000103668		2	0.169006
8541	0.141144	785.849	-0.000104462		2	0.141113
8602	0.11322	791.434	-0.000105927		2	0.11319
8663	0.0852966	797.019	-0.000108643		2	0.0853271
8724	0.057373	802.603	-0.000114258		2	0.0574341
8785	0.0706482	808.188	4.56299e-05		3	0.0705261
8846	0.0985718	813.773	5.85327e-05		3	0.0983582
8907	0.126495	819.358	6.35986e-05		3	0.126282
8968	0.154419	824.942	6.68945e-05		3	0.154114
9029	0.182343	830.527	6.97937e-05		3	0.182007
9090	0.210266	836.112	7.24792e-05		3	0.20993
9151	0.23819	841.697	7.48901e-05		3	0.237793
9212	0.266113	847.281	7.69653e-05		3	0.265686
9273	0.294037	852.866	7.91626e-05		3	0.293579
9334	0.32196	858.451	8.12988e-05		3	0.321533
9395	0.349884	864.036	8.33435e-05		3	0.349335
9456	0.377808	869.62	8.54797e-05		3	0.377258
9517	0.405731	875.205	8.7677e-05		3	0.405151
9578	0.433655	880.79	9.01489e-05		3	0.432983
9639	0.461578	886.374	9.28955e-05		3	0.460907
9700	0.489502	891.959	9.65576e-05		3	0.488831
9761	0.517426	897.544	0.00010141		3	0.516632
9822	0.545349	903.129	0.000106415		3	0.544556
9883	0.573273	908.713	0.000108185		3	0.572388
9944	0.601196	914.298	0.000107635		3	0.60025
10005	0.62912	919.883	0.000108978		3	0.628143
10066	0.657043	925.468	0.000108734		3	0.656128
10127	0.684967	931.052	0.000106567		3	0.684021
10188	0.712891	936.637	0.000102631		3	0.711914
10249	0.740814	942.222	9.86938e-05		3	0.739929
10310	0.768738	947.807	9.49402e-05		3	0.768127
10371	0.796661	953.391	9.19495e-05		3	0.795288
10432	0.824585	958.976	8.9447e-05		3	0.823975
10493	0.852509	964.561	8.73718e-05		3	0.85144
10554	0.880432	970.145	8.5907e-05		3	0.879822
10615	0.908356	975.73	8.46558e-05		3	0.907593
10676	0.936279	981.315	8.45032e-05		3	0.935669
10737	0.964203	986.9	8.47473e-05		3	0.96344
10798	0.992126	992.484	8.58154e-05		3	0.991211
10859	1.02005	998.069	8.80432e-05		3	1.01929
10920	1.04797	1003.65	9.25293e-05		3	1.04706
10981	1.02463	1009.24	-2.91595e-05		3	1.02356
11042	0.996704	1014.82	-3.94562e-05		3	0.995789
11103	0.968781	1020.41	-4.422e-05		3	0.968323
11164	0.940857	1025.99	-4.75983e-05		3	0.939941
11225	0.912933	1031.58	-5.08728e-05		3	0.91217
11286	0.88501	1037.16	-5.40161e-05		3	0.884094
11347	0.857086	1042.75	-5.78918e-05		3	0.856323
11408	0.829163	1048.33	-6.19812e-05		3	0.828552
11469	0.801239	1053.92	-6.72607e-05		3	0.800781
11530	0.773315	1059.5	-7.28149e-05		3	0.7724
11591	0.745392	1065.09	-7.87659e-05		3	0.744659
11652	0.717468	1070.67	-8.49915e-05		3	0.716705
11713	0.689545	1076.26	-9.11255e-05		3	0.688812
11774	0.661621	1081.84	-9.73511e-05		3	0.660919
11835	0.633698	1087.42	-0.000102631		3	0.632965
11896	0.605774	1093.01	-0.000106537		3	0.605072
11957	0.57785	1098.59	-0.000108276		3	0.577179
12018	0.549927	1104.18	-0.000108368		3	0.549347
12079	0.522003	1109.76	-0.000107666		3	0.521484
12140	0.49408	1115.35	-0.000106323		3	0.493591
12201	0.466156	1120.93	-0.000105286		3	0.465637
12262	0.438232	1126.52	-0.000104065		3	0.437805
12323	0.410309	1132.1	-0.000106415		3	0.409912
12384	0.382385	1137.69	-0.000108551		3	0.382111
12445	0.354462	1143.27	-0.000107758		3	0.354187
12506	0.326538	1148.86	-0.000105255		3	0.326233
12567	0.298615	1154.44	-0.000103729		3	0.29837
12628	0.270691	1160.03	-0.000103271		3	0.270477
12689	0.242767	1165.61	-0.000102692		3	0.242584
12750	0.214844	1171.2	-0.000102875		3	0.214722
12811	0.18692	1176.78	-0.000102844		3	0.186798
12872	0.158997	1182.37	-0.00010321		3	0.158966
12933	0.131073	1187.95	-0.000104065		3	0.131042
12994	0.103149	1193.53	-0.000105682		3	0.10318
13055	0.0752258	1199.12	-0.000109161		3	0.0753479
13116	0.0527954	1204.7	-1.91711e-05		3	0.0528564
13132	0.0601196	1206.17	3.19122e-05		3	0.0600586